File: data/FL/FL/2023.4.27/10号b-cds 湖水.txt
Apr. 27, 2023   13:32:53
Cyclic Voltammetry
File: 10Data Source:  Experiment
Instrument Model:  CHI660E
Ref. Electrode: Ag/AgCl
Header:
Note:

Init E (V) = 0
High E (V) = 0
Low E (V) = -2
Init P/N = N
Scan Rate (V/s) = 0.1
Segment = 40
Sample Interval (V) = 0.001
Quiet Time (sec) = 5
Sensitivity (A/V) = 0.001

Segment 1:

Segment 2:

Segment 3:

Segment 4:

Segment 5:

Segment 6:

Segment 7:

Segment 8:

Segment 9:

Segment 10:

Segment 11:

Segment 12:

Segment 13:

Segment 14:

Segment 15:

Segment 16:

Segment 17:

Segment 18:

Segment 19:

Segment 20:

Segment 21:

Segment 22:

Segment 23:

Segment 24:

Segment 25:

Segment 26:

Segment 27:

Segment 28:

Segment 29:

Segment 30:

Segment 31:

Segment 32:

Segment 33:

Segment 34:

Segment 35:

Segment 36:

Segment 37:

Segment 38:

Segment 39:

Segment 40:

Potential/V, Current/A, Voltage/V, Time/s

0.000, 1.185e-5, 1.676e-2, 1.000e-2
-0.301, 2.857e-6, 1.852e-2, 3.020e+0
-0.602, -4.950e-7, 1.663e-2, 6.030e+0
-0.903, -5.148e-6, 1.670e-2, 9.040e+0
-1.204, -1.440e-5, 1.998e-2, 1.205e+1
-1.505, -3.079e-5, 2.419e-2, 1.506e+1
-1.806, -4.881e-5, 3.299e-2, 1.807e+1
-1.893, -3.633e-5, 2.772e-2, 2.108e+1
-1.592, -1.320e-5, 1.838e-2, 2.409e+1
-1.291, -4.994e-6, 1.728e-2, 2.710e+1
-0.990, -2.550e-7, 1.635e-2, 3.011e+1
-0.689, 3.845e-6, 1.935e-2, 3.312e+1
-0.388, 7.695e-6, 1.563e-2, 3.613e+1
-0.087, 1.020e-5, 1.852e-2, 3.914e+1
-0.214, 4.808e-6, 1.584e-2, 4.215e+1
-0.515, 8.592e-7, 1.849e-2, 4.516e+1
-0.816, -2.621e-6, 1.698e-2, 4.817e+1
-1.117, -8.988e-6, 1.811e-2, 5.118e+1
-1.418, -2.179e-5, 2.100e-2, 5.419e+1
-1.719, -3.951e-5, 2.199e-2, 5.720e+1
-1.980, -5.197e-5, 7.295e-2, 6.021e+1
-1.679, -1.611e-5, 1.739e-2, 6.322e+1
-1.378, -6.355e-6, 1.833e-2, 6.623e+1
-1.077, -1.202e-6, 1.830e-2, 6.924e+1
-0.776, 2.819e-6, 1.599e-2, 7.225e+1
-0.475, 6.840e-6, 2.082e-2, 7.526e+1
-0.174, 9.792e-6, 1.544e-2, 7.827e+1
-0.127, 6.491e-6, 1.844e-2, 8.128e+1
-0.428, 1.994e-6, 1.848e-2, 8.429e+1
-0.729, -1.379e-6, 1.697e-2, 8.730e+1
-1.030, -6.185e-6, 1.910e-2, 9.031e+1
-1.331, -1.645e-5, 1.740e-2, 9.332e+1
-1.632, -3.310e-5, 2.391e-2, 9.633e+1
-1.933, -5.215e-5, 5.657e-2, 9.934e+1
-1.766, -2.070e-5, 1.806e-2, 1.024e+2
-1.465, -8.117e-6, 1.878e-2, 1.054e+2
-1.164, -2.421e-6, 1.788e-2, 1.084e+2
-0.863, 1.819e-6, 1.856e-2, 1.114e+2
-0.562, 5.798e-6, 1.628e-2, 1.144e+2
-0.261, 9.118e-6, 1.696e-2, 1.174e+2
-0.040, 8.887e-6, 1.924e-2, 1.204e+2
-0.341, 3.067e-6, 1.514e-2, 1.234e+2
-0.642, -3.295e-7, 1.854e-2, 1.264e+2
-0.943, -4.259e-6, 1.663e-2, 1.294e+2
-1.244, -1.224e-5, 2.015e-2, 1.325e+2
-1.545, -2.718e-5, 2.118e-2, 1.355e+2
-1.846, -4.500e-5, 3.519e-2, 1.385e+2
-1.853, -2.760e-5, 2.163e-2, 1.415e+2
-1.552, -1.039e-5, 1.971e-2, 1.445e+2
-1.251, -3.683e-6, 1.775e-2, 1.475e+2
-0.950, 6.641e-7, 1.948e-2, 1.505e+2
-0.649, 4.641e-6, 1.532e-2, 1.535e+2
-0.348, 8.262e-6, 1.941e-2, 1.565e+2
-0.047, 1.067e-5, 1.772e-2, 1.595e+2
-0.254, 4.290e-6, 1.533e-2, 1.625e+2
-0.555, 5.952e-7, 1.996e-2, 1.655e+2
-0.856, -2.818e-6, 1.603e-2, 1.686e+2
-1.157, -9.025e-6, 1.769e-2, 1.716e+2
-1.458, -2.161e-5, 2.320e-2, 1.746e+2
-1.759, -3.904e-5, 2.235e-2, 1.776e+2
-1.940, -3.941e-5, 4.068e-2, 1.806e+2
-1.639, -1.329e-5, 1.889e-2, 1.836e+2
-1.338, -5.084e-6, 1.753e-2, 1.866e+2
-1.037, -4.008e-7, 1.845e-2, 1.896e+2
-0.736, 3.476e-6, 1.534e-2, 1.926e+2
-0.435, 7.395e-6, 1.787e-2, 1.956e+2
-0.134, 1.010e-5, 1.680e-2, 1.986e+2
-0.167, 5.771e-6, 1.802e-2, 2.016e+2
-0.468, 1.597e-6, 1.738e-2, 2.047e+2
-0.769, -1.647e-6, 1.527e-2, 2.077e+2
-1.070, -6.444e-6, 1.913e-2, 2.107e+2
-1.371, -1.678e-5, 1.774e-2, 2.137e+2
-1.672, -3.341e-5, 2.342e-2, 2.167e+2
-1.973, -5.275e-5, 7.949e-2, 2.197e+2
-1.726, -1.728e-5, 1.869e-2, 2.227e+2
-1.425, -6.666e-6, 2.026e-2, 2.257e+2
-1.124, -1.573e-6, 1.452e-2, 2.287e+2
-0.823, 2.398e-6, 1.921e-2, 2.317e+2
-0.522, 6.410e-6, 1.678e-2, 2.347e+2
-0.221, 9.463e-6, 1.648e-2, 2.377e+2
-0.080, 7.771e-6, 1.766e-2, 2.408e+2
-0.381, 2.581e-6, 1.658e-2, 2.438e+2
-0.682, -5.854e-7, 1.806e-2, 2.468e+2
-0.983, -4.602e-6, 1.826e-2, 2.498e+2
-1.284, -1.268e-5, 1.965e-2, 2.528e+2
-1.585, -2.777e-5, 2.087e-2, 2.558e+2
-1.886, -4.586e-5, 4.089e-2, 2.588e+2
-1.813, -2.302e-5, 2.005e-2, 2.618e+2
-1.512, -8.806e-6, 1.958e-2, 2.648e+2
-1.211, -2.803e-6, 1.614e-2, 2.679e+2
-0.910, 1.328e-6, 1.853e-2, 2.709e+2
-0.609, 5.259e-6, 1.623e-2, 2.739e+2
-0.308, 8.710e-6, 1.997e-2, 2.769e+2
-0.007, 1.090e-5, 1.532e-2, 2.799e+2
-0.294, 3.798e-6, 1.854e-2, 2.829e+2
-0.595, 3.171e-7, 1.668e-2, 2.859e+2
-0.896, -3.146e-6, 1.747e-2, 2.889e+2
-1.197, -9.480e-6, 1.919e-2, 2.920e+2
-1.498, -2.249e-5, 2.009e-2, 2.950e+2
-1.799, -3.999e-5, 2.499e-2, 2.980e+2
-1.900, -3.190e-5, 2.719e-2, 3.010e+2
-1.599, -1.132e-5, 1.535e-2, 3.040e+2
-1.298, -4.133e-6, 2.003e-2, 3.070e+2
-0.997, 2.329e-7, 1.573e-2, 3.100e+2
-0.696, 4.188e-6, 1.864e-2, 3.130e+2
-0.395, 7.865e-6, 1.611e-2, 3.161e+2
-0.094, 1.041e-5, 1.864e-2, 3.191e+2
-0.207, 5.138e-6, 1.757e-2, 3.221e+2
-0.508, 1.214e-6, 1.796e-2, 3.251e+2
-0.809, -2.012e-6, 1.725e-2, 3.281e+2
-1.110, -6.911e-6, 1.929e-2, 3.311e+2
-1.411, -1.760e-5, 1.754e-2, 3.341e+2
-1.712, -3.448e-5, 2.680e-2, 3.371e+2
-1.987, -4.876e-5, 7.645e-2, 3.402e+2
-1.686, -1.477e-5, 1.779e-2, 3.432e+2
-1.385, -5.614e-6, 1.989e-2, 3.462e+2
-1.084, -8.930e-7, 1.688e-2, 3.492e+2
-0.783, 3.046e-6, 1.884e-2, 3.522e+2
-0.482, 6.993e-6, 1.767e-2, 3.552e+2
-0.181, 9.735e-6, 1.616e-2, 3.582e+2
-0.120, 6.852e-6, 1.821e-2, 3.613e+2
-0.421, 2.205e-6, 1.584e-2, 3.643e+2
-0.722, -1.030e-6, 1.876e-2, 3.673e+2
-1.023, -4.946e-6, 1.866e-2, 3.703e+2
-1.324, -1.352e-5, 1.827e-2, 3.733e+2
-1.625, -2.891e-5, 2.342e-2, 3.763e+2
-1.926, -4.782e-5, 4.648e-2, 3.793e+2
-1.773, -1.960e-5, 2.083e-2, 3.823e+2
-1.472, -7.428e-6, 1.757e-2, 3.854e+2
-1.171, -2.061e-6, 1.822e-2, 3.884e+2
-0.870, 1.997e-6, 1.622e-2, 3.914e+2
-0.569, 5.903e-6, 1.739e-2, 3.944e+2
-0.268, 9.143e-6, 1.787e-2, 3.974e+2
-0.033, 9.242e-6, 1.767e-2, 4.004e+2
-0.334, 3.351e-6, 1.829e-2, 4.034e+2
-0.635, -2.431e-8, 1.641e-2, 4.064e+2
-0.936, -3.432e-6, 1.933e-2, 4.095e+2
-1.237, -1.018e-5, 1.848e-2, 4.125e+2
-1.538, -2.369e-5, 2.306e-2, 4.155e+2
-1.839, -4.170e-5, 2.805e-2, 4.185e+2
-1.860, -2.669e-5, 2.469e-2, 4.215e+2
-1.559, -9.884e-6, 1.746e-2, 4.245e+2
-1.258, -3.321e-6, 1.824e-2, 4.275e+2
-0.957, 8.629e-7, 1.735e-2, 4.305e+2
-0.656, 4.818e-6, 1.705e-2, 4.336e+2
-0.355, 8.321e-6, 1.763e-2, 4.366e+2
-0.054, 1.068e-5, 1.666e-2, 4.396e+2
-0.247, 4.575e-6, 1.890e-2, 4.426e+2
-0.548, 8.561e-7, 1.644e-2, 4.456e+2
-0.849, -2.335e-6, 1.889e-2, 4.486e+2
-1.150, -7.502e-6, 1.665e-2, 4.516e+2
-1.451, -1.894e-5, 2.082e-2, 4.547e+2
-1.752, -3.612e-5, 2.347e-2, 4.577e+2
-1.947, -3.860e-5, 4.401e-2, 4.607e+2
-1.646, -1.269e-5, 1.732e-2, 4.637e+2
-1.345, -4.751e-6, 1.750e-2, 4.667e+2
-1.044, -1.437e-7, 1.738e-2, 4.697e+2
-0.743, 3.589e-6, 1.644e-2, 4.727e+2
-0.442, 7.480e-6, 1.881e-2, 4.757e+2
-0.141, 1.009e-5, 1.572e-2, 4.788e+2
-0.160, 6.134e-6, 1.865e-2, 4.818e+2
-0.461, 1.789e-6, 1.528e-2, 4.848e+2
-0.762, -1.304e-6, 1.962e-2, 4.878e+2
-1.063, -5.469e-6, 1.654e-2, 4.908e+2
-1.364, -1.450e-5, 2.156e-2, 4.938e+2
-1.665, -3.062e-5, 2.047e-2, 4.968e+2
-1.966, -4.977e-5, 7.142e-2, 4.998e+2
-1.733, -1.691e-5, 1.818e-2, 5.029e+2
-1.432, -6.335e-6, 2.017e-2, 5.059e+2
-1.131, -1.418e-6, 1.688e-2, 5.089e+2
-0.830, 2.565e-6, 1.909e-2, 5.119e+2
-0.529, 6.466e-6, 1.569e-2, 5.149e+2
-0.228, 9.448e-6, 1.960e-2, 5.179e+2
-0.073, 8.056e-6, 1.516e-2, 5.209e+2
-0.374, 2.811e-6, 1.901e-2, 5.239e+2
-0.675, -4.058e-7, 1.512e-2, 5.270e+2
-0.976, -3.909e-6, 1.901e-2, 5.300e+2
-1.277, -1.100e-5, 1.767e-2, 5.330e+2
-1.578, -2.523e-5, 2.124e-2, 5.360e+2
-1.879, -4.369e-5, 3.467e-2, 5.390e+2
-1.820, -2.265e-5, 1.867e-2, 5.420e+2
-1.519, -8.391e-6, 1.969e-2, 5.450e+2
-1.218, -2.578e-6, 1.591e-2, 5.481e+2
-0.917, 1.489e-6, 1.953e-2, 5.511e+2
-0.616, 5.386e-6, 1.510e-2, 5.541e+2
-0.315, 8.783e-6, 1.828e-2, 5.571e+2
-0.014, 1.090e-5, 1.606e-2, 5.601e+2
-0.287, 4.072e-6, 1.771e-2, 5.631e+2
-0.588, 4.402e-7, 1.858e-2, 5.661e+2
-0.889, -2.714e-6, 1.597e-2, 5.691e+2
-1.190, -8.208e-6, 1.861e-2, 5.722e+2
-1.491, -2.020e-5, 2.042e-2, 5.752e+2
-1.792, -3.792e-5, 2.574e-2, 5.782e+2
-1.907, -3.165e-5, 3.072e-2, 5.812e+2
-1.606, -1.108e-5, 1.544e-2, 5.842e+2
-1.305, -3.892e-6, 1.919e-2, 5.872e+2
-1.004, 3.596e-7, 1.509e-2, 5.902e+2
-0.703, 4.266e-6, 1.828e-2, 5.932e+2
-0.402, 7.929e-6, 1.882e-2, 5.963e+2
-0.101, 1.041e-5, 1.559e-2, 5.993e+2
-0.200, 5.414e-6, 1.804e-2, 6.023e+2
-0.501, 1.337e-6, 1.707e-2, 6.053e+2
-0.802, -1.700e-6, 1.689e-2, 6.083e+2
-1.103, -6.118e-6, 1.961e-2, 6.113e+2
-1.404, -1.584e-5, 1.677e-2, 6.143e+2
-1.705, -3.247e-5, 2.484e-2, 6.174e+2
-1.994, -4.957e-5, 8.691e-2, 6.204e+2
-1.693, -1.453e-5, 2.092e-2, 6.234e+2
-1.392, -5.411e-6, 1.994e-2, 6.264e+2
-1.091, -7.041e-7, 1.467e-2, 6.294e+2
-0.790, 3.126e-6, 1.975e-2, 6.324e+2
-0.489, 7.019e-6, 1.859e-2, 6.354e+2
-0.188, 9.811e-6, 1.749e-2, 6.384e+2
-0.113, 7.109e-6, 1.789e-2, 6.415e+2
-0.414, 2.375e-6, 1.613e-2, 6.445e+2
-0.715, -7.146e-7, 1.843e-2, 6.475e+2
-1.016, -4.451e-6, 1.729e-2, 6.505e+2
-1.317, -1.207e-5, 1.872e-2, 6.535e+2
-1.618, -2.695e-5, 2.320e-2, 6.565e+2
-1.919, -4.580e-5, 4.732e-2, 6.595e+2
-1.780, -1.932e-5, 2.076e-2, 6.625e+2
-1.479, -7.298e-6, 1.735e-2, 6.656e+2
-1.178, -1.855e-6, 1.658e-2, 6.686e+2
-0.877, 2.031e-6, 1.906e-2, 6.716e+2
-0.576, 5.953e-6, 1.435e-2, 6.746e+2
-0.275, 9.108e-6, 1.933e-2, 6.776e+2
-0.026, 9.589e-6, 1.551e-2, 6.806e+2
-0.327, 3.488e-6, 1.751e-2, 6.836e+2
-0.628, 5.074e-8, 1.859e-2, 6.866e+2
-0.929, -3.117e-6, 1.538e-2, 6.897e+2
-1.230, -9.169e-6, 2.028e-2, 6.927e+2
-1.531, -2.190e-5, 1.747e-2, 6.957e+2
-1.832, -4.007e-5, 3.019e-2, 6.987e+2
-1.867, -2.660e-5, 2.384e-2, 7.017e+2
-1.566, -9.563e-6, 1.780e-2, 7.047e+2
-1.265, -3.179e-6, 1.812e-2, 7.077e+2
-0.964, 9.976e-7, 1.507e-2, 7.108e+2
-0.663, 4.824e-6, 1.885e-2, 7.138e+2
-0.362, 8.387e-6, 1.539e-2, 7.168e+2
-0.061, 1.065e-5, 1.852e-2, 7.198e+2
-0.240, 4.761e-6, 1.577e-2, 7.228e+2
-0.541, 9.539e-7, 1.722e-2, 7.258e+2
-0.842, -2.074e-6, 1.685e-2, 7.288e+2
-1.143, -6.841e-6, 1.738e-2, 7.318e+2
-1.444, -1.727e-5, 2.020e-2, 7.349e+2
-1.745, -3.461e-5, 2.178e-2, 7.379e+2
-1.954, -3.909e-5, 4.824e-2, 7.409e+2
-1.653, -1.260e-5, 1.643e-2, 7.439e+2
-1.352, -4.530e-6, 2.002e-2, 7.469e+2
-1.051, -1.252e-7, 1.467e-2, 7.499e+2
-0.750, 3.770e-6, 1.951e-2, 7.529e+2
-0.449, 7.462e-6, 1.551e-2, 7.559e+2
-0.148, 1.013e-5, 1.882e-2, 7.590e+2
-0.153, 6.300e-6, 1.631e-2, 7.620e+2
-0.454, 1.924e-6, 1.723e-2, 7.650e+2
-0.755, -1.158e-6, 1.803e-2, 7.680e+2
-1.056, -5.013e-6, 1.613e-2, 7.710e+2
-1.357, -1.342e-5, 1.972e-2, 7.740e+2
-1.658, -2.902e-5, 2.032e-2, 7.770e+2
-1.959, -4.874e-5, 6.635e-2, 7.800e+2
-1.740, -1.680e-5, 1.896e-2, 7.831e+2
-1.439, -6.258e-6, 1.786e-2, 7.861e+2
-1.138, -1.252e-6, 1.774e-2, 7.891e+2
-0.837, 2.685e-6, 1.778e-2, 7.921e+2
-0.536, 6.592e-6, 1.646e-2, 7.951e+2
-0.235, 9.474e-6, 1.762e-2, 7.981e+2
-0.002, 1.109e-5, 1.676e-2, 8.005e+2