File: data/FL/FL/2023.4.27/10号b-cds（2）.txt
Apr. 27, 2023   13:14:23
Cyclic Voltammetry
File: 10Data Source:  Experiment
Instrument Model:  CHI660E
Ref. Electrode: Ag/AgCl
Header:
Note:

Init E (V) = 0
High E (V) = 0
Low E (V) = -2
Init P/N = N
Scan Rate (V/s) = 0.1
Segment = 40
Sample Interval (V) = 0.001
Quiet Time (sec) = 5
Sensitivity (A/V) = 0.001

Segment 1:

Segment 2:

Segment 3:

Segment 4:

Segment 5:

Segment 6:

Segment 7:

Segment 8:

Segment 9:

Segment 10:

Segment 11:

Segment 12:

Segment 13:

Segment 14:

Segment 15:

Segment 16:

Segment 17:

Segment 18:

Segment 19:

Segment 20:

Segment 21:

Segment 22:

Segment 23:

Segment 24:

Segment 25:

Segment 26:

Segment 27:

Segment 28:

Segment 29:

Segment 30:

Segment 31:

Segment 32:

Segment 33:

Segment 34:

Segment 35:

Segment 36:

Segment 37:

Segment 38:

Segment 39:

Segment 40:

Potential/V, Current/A, Voltage/V, Time/s

0.000, 8.607e-6, 1.567e-2, 1.000e-2
-0.301, 3.140e-6, 1.846e-2, 3.020e+0
-0.602, -1.997e-6, 1.637e-2, 6.030e+0
-0.903, -1.189e-5, 3.710e-2, 9.040e+0
-1.204, -2.881e-5, 1.085e-1, 1.205e+1
-1.505, -4.942e-5, 2.801e-1, 1.506e+1
-1.806, -6.566e-5, 1.658e-1, 1.807e+1
-1.893, -4.645e-5, 1.265e-1, 2.108e+1
-1.592, -1.540e-5, 7.915e-2, 2.409e+1
-1.291, -3.749e-6, 4.528e-2, 2.710e+1
-0.990, 4.025e-6, 2.722e-2, 3.011e+1
-0.689, 8.975e-6, 1.873e-2, 3.312e+1
-0.388, 1.144e-5, 1.499e-2, 3.613e+1
-0.087, 1.279e-5, 1.949e-2, 3.914e+1
-0.214, 5.782e-6, 1.521e-2, 4.215e+1
-0.515, 7.576e-7, 1.753e-2, 4.516e+1
-0.816, -6.269e-6, 1.869e-2, 4.817e+1
-1.117, -1.925e-5, 6.259e-2, 5.118e+1
-1.418, -3.985e-5, 2.172e-1, 5.419e+1
-1.719, -5.665e-5, 2.315e-1, 5.720e+1
-1.980, -7.350e-5, 1.911e-1, 6.021e+1
-1.679, -1.968e-5, 8.749e-2, 6.322e+1
-1.378, -5.958e-6, 5.088e-2, 6.623e+1
-1.077, 2.346e-6, 3.023e-2, 6.924e+1
-0.776, 7.997e-6, 1.604e-2, 7.225e+1
-0.475, 1.112e-5, 1.886e-2, 7.526e+1
-0.174, 1.266e-5, 1.506e-2, 7.827e+1
-0.127, 7.829e-6, 1.899e-2, 8.128e+1
-0.428, 2.389e-6, 1.636e-2, 8.429e+1
-0.729, -3.263e-6, 1.772e-2, 8.730e+1
-1.030, -1.373e-5, 4.536e-2, 9.031e+1
-1.331, -3.192e-5, 1.492e-1, 9.332e+1
-1.632, -5.091e-5, 2.599e-1, 9.633e+1
-1.933, -7.252e-5, 1.611e-1, 9.934e+1
-1.766, -2.585e-5, 9.681e-2, 1.024e+2
-1.465, -8.978e-6, 5.921e-2, 1.054e+2
-1.164, 4.076e-7, 3.608e-2, 1.084e+2
-0.863, 6.637e-6, 1.752e-2, 1.114e+2
-0.562, 1.049e-5, 1.678e-2, 1.144e+2
-0.261, 1.235e-5, 1.701e-2, 1.174e+2
-0.040, 1.066e-5, 1.600e-2, 1.204e+2
-0.341, 3.965e-6, 1.947e-2, 1.234e+2
-0.642, -1.216e-6, 1.604e-2, 1.264e+2
-0.943, -9.519e-6, 3.486e-2, 1.294e+2
-1.244, -2.462e-5, 9.450e-2, 1.325e+2
-1.545, -4.502e-5, 2.458e-1, 1.355e+2
-1.846, -6.237e-5, 1.639e-1, 1.385e+2
-1.853, -3.578e-5, 1.086e-1, 1.415e+2
-1.552, -1.225e-5, 7.221e-2, 1.445e+2
-1.251, -1.875e-6, 3.789e-2, 1.475e+2
-0.950, 5.151e-6, 2.329e-2, 1.505e+2
-0.649, 9.652e-6, 1.517e-2, 1.535e+2
-0.348, 1.196e-5, 1.763e-2, 1.565e+2
-0.047, 1.331e-5, 1.650e-2, 1.595e+2
-0.254, 5.481e-6, 1.667e-2, 1.625e+2
-0.555, 5.054e-7, 1.883e-2, 1.655e+2
-0.856, -6.239e-6, 1.934e-2, 1.686e+2
-1.157, -1.845e-5, 6.198e-2, 1.716e+2
-1.458, -3.851e-5, 2.046e-1, 1.746e+2
-1.759, -5.570e-5, 2.025e-1, 1.776e+2
-1.940, -5.375e-5, 1.240e-1, 1.806e+2
-1.639, -1.641e-5, 7.399e-2, 1.836e+2
-1.338, -4.522e-6, 4.590e-2, 1.866e+2
-1.037, 3.271e-6, 3.006e-2, 1.896e+2
-0.736, 8.568e-6, 1.774e-2, 1.926e+2
-0.435, 1.144e-5, 1.656e-2, 1.956e+2
-0.134, 1.305e-5, 1.746e-2, 1.986e+2
-0.167, 7.203e-6, 1.665e-2, 2.016e+2
-0.468, 2.011e-6, 1.715e-2, 2.047e+2
-0.769, -3.636e-6, 1.698e-2, 2.077e+2
-1.070, -1.368e-5, 4.661e-2, 2.107e+2
-1.371, -3.178e-5, 1.433e-1, 2.137e+2
-1.672, -5.060e-5, 2.353e-1, 2.167e+2
-1.973, -7.414e-5, 1.685e-1, 2.197e+2
-1.726, -2.186e-5, 8.755e-2, 2.227e+2
-1.425, -7.128e-6, 5.211e-2, 2.257e+2
-1.124, 1.331e-6, 2.932e-2, 2.287e+2
-0.823, 7.215e-6, 1.894e-2, 2.317e+2
-0.522, 1.082e-5, 1.570e-2, 2.347e+2
-0.221, 1.263e-5, 1.892e-2, 2.377e+2
-0.080, 9.418e-6, 1.775e-2, 2.408e+2
-0.381, 3.441e-6, 1.686e-2, 2.438e+2
-0.682, -1.565e-6, 1.785e-2, 2.468e+2
-0.983, -9.798e-6, 3.084e-2, 2.498e+2
-1.284, -2.473e-5, 9.760e-2, 2.528e+2
-1.585, -4.480e-5, 2.264e-1, 2.558e+2
-1.886, -6.304e-5, 1.520e-1, 2.588e+2
-1.813, -2.962e-5, 8.721e-2, 2.618e+2
-1.512, -1.034e-5, 5.568e-2, 2.648e+2
-1.211, -8.555e-7, 3.018e-2, 2.679e+2
-0.910, 5.698e-6, 1.933e-2, 2.709e+2
-0.609, 9.950e-6, 1.816e-2, 2.739e+2
-0.308, 1.227e-5, 1.619e-2, 2.769e+2
-0.007, 1.356e-5, 1.929e-2, 2.799e+2
-0.294, 4.933e-6, 1.602e-2, 2.829e+2
-0.595, 8.827e-8, 1.790e-2, 2.859e+2
-0.896, -6.666e-6, 2.432e-2, 2.889e+2
-1.197, -1.891e-5, 5.930e-2, 2.920e+2
-1.498, -3.859e-5, 1.916e-1, 2.950e+2
-1.799, -5.617e-5, 1.653e-1, 2.980e+2
-1.900, -4.227e-5, 1.080e-1, 3.010e+2
-1.599, -1.405e-5, 6.165e-2, 3.040e+2
-1.298, -3.142e-6, 3.642e-2, 3.070e+2
-0.997, 3.959e-6, 2.292e-2, 3.100e+2
-0.696, 8.906e-6, 1.481e-2, 3.130e+2
-0.395, 1.175e-5, 1.863e-2, 3.161e+2
-0.094, 1.320e-5, 1.667e-2, 3.191e+2
-0.207, 6.593e-6, 1.716e-2, 3.221e+2
-0.508, 1.419e-6, 1.862e-2, 3.251e+2
-0.809, -4.086e-6, 1.705e-2, 3.281e+2
-1.110, -1.414e-5, 4.353e-2, 3.311e+2
-1.411, -3.191e-5, 1.291e-1, 3.341e+2
-1.712, -5.068e-5, 2.061e-1, 3.371e+2
-1.987, -6.763e-5, 1.418e-1, 3.402e+2
-1.686, -1.877e-5, 6.783e-2, 3.432e+2
-1.385, -5.750e-6, 4.686e-2, 3.462e+2
-1.084, 2.119e-6, 2.383e-2, 3.492e+2
-0.783, 7.614e-6, 1.661e-2, 3.522e+2
-0.482, 1.113e-5, 1.669e-2, 3.552e+2
-0.181, 1.289e-5, 1.426e-2, 3.582e+2
-0.120, 8.463e-6, 1.864e-2, 3.613e+2
-0.421, 2.893e-6, 1.654e-2, 3.643e+2
-0.722, -2.123e-6, 1.773e-2, 3.673e+2
-1.023, -1.027e-5, 3.486e-2, 3.703e+2
-1.324, -2.547e-5, 8.995e-2, 3.733e+2
-1.625, -4.522e-5, 2.015e-1, 3.763e+2
-1.926, -6.486e-5, 1.472e-1, 3.793e+2
-1.773, -2.515e-5, 7.603e-2, 3.823e+2
-1.472, -8.734e-6, 5.015e-2, 3.854e+2
-1.171, 2.429e-8, 2.691e-2, 3.884e+2
-0.870, 6.207e-6, 1.952e-2, 3.914e+2
-0.569, 1.029e-5, 1.500e-2, 3.944e+2
-0.268, 1.246e-5, 1.646e-2, 3.974e+2
-0.033, 1.140e-5, 1.649e-2, 4.004e+2
-0.334, 4.340e-6, 1.575e-2, 4.034e+2
-0.635, -4.802e-7, 1.911e-2, 4.064e+2
-0.936, -7.214e-6, 2.293e-2, 4.095e+2
-1.237, -1.974e-5, 6.365e-2, 4.125e+2
-1.538, -3.924e-5, 1.788e-1, 4.155e+2
-1.839, -5.732e-5, 1.561e-1, 4.185e+2
-1.860, -3.477e-5, 8.126e-2, 4.215e+2
-1.559, -1.212e-5, 5.232e-2, 4.245e+2
-1.258, -2.205e-6, 3.100e-2, 4.275e+2
-0.957, 4.543e-6, 1.867e-2, 4.305e+2
-0.656, 9.299e-6, 1.803e-2, 4.336e+2
-0.355, 1.197e-5, 1.566e-2, 4.366e+2
-0.054, 1.347e-5, 2.046e-2, 4.396e+2
-0.247, 5.886e-6, 1.505e-2, 4.426e+2
-0.548, 9.188e-7, 1.847e-2, 4.456e+2
-0.849, -4.776e-6, 1.722e-2, 4.486e+2
-1.150, -1.496e-5, 4.330e-2, 4.516e+2
-1.451, -3.286e-5, 1.308e-1, 4.547e+2
-1.752, -5.156e-5, 1.812e-1, 4.577e+2
-1.947, -5.184e-5, 1.146e-1, 4.607e+2
-1.646, -1.627e-5, 5.665e-2, 4.637e+2
-1.345, -4.566e-6, 3.768e-2, 4.667e+2
-1.044, 2.725e-6, 2.197e-2, 4.697e+2
-0.743, 8.060e-6, 1.862e-2, 4.727e+2
-0.442, 1.137e-5, 1.523e-2, 4.757e+2
-0.141, 1.313e-5, 1.803e-2, 4.788e+2
-0.160, 7.657e-6, 1.544e-2, 4.818e+2
-0.461, 2.275e-6, 1.683e-2, 4.848e+2
-0.762, -2.666e-6, 1.802e-2, 4.878e+2
-1.063, -1.105e-5, 3.170e-2, 4.908e+2
-1.364, -2.656e-5, 8.817e-2, 4.938e+2
-1.665, -4.604e-5, 1.970e-1, 4.968e+2
-1.966, -6.745e-5, 1.479e-1, 4.998e+2
-1.733, -2.169e-5, 6.146e-2, 5.029e+2
-1.432, -7.309e-6, 3.844e-2, 5.059e+2
-1.131, 8.462e-7, 2.681e-2, 5.089e+2
-0.830, 6.687e-6, 1.584e-2, 5.119e+2
-0.529, 1.054e-5, 1.772e-2, 5.149e+2
-0.228, 1.274e-5, 1.796e-2, 5.179e+2
-0.073, 9.915e-6, 1.621e-2, 5.209e+2
-0.374, 3.755e-6, 1.823e-2, 5.239e+2
-0.675, -9.853e-7, 1.444e-2, 5.270e+2
-0.976, -7.932e-6, 2.713e-2, 5.300e+2
-1.277, -2.081e-5, 6.303e-2, 5.330e+2
-1.578, -4.028e-5, 1.745e-1, 5.360e+2
-1.879, -5.891e-5, 1.382e-1, 5.390e+2
-1.820, -2.940e-5, 6.939e-2, 5.420e+2
-1.519, -1.036e-5, 4.924e-2, 5.450e+2
-1.218, -1.299e-6, 2.616e-2, 5.481e+2
-0.917, 5.060e-6, 1.905e-2, 5.511e+2
-0.616, 9.611e-6, 1.485e-2, 5.541e+2
-0.315, 1.214e-5, 1.768e-2, 5.571e+2
-0.014, 1.370e-5, 1.785e-2, 5.601e+2
-0.287, 5.217e-6, 1.444e-2, 5.631e+2
-0.588, 3.904e-7, 1.826e-2, 5.661e+2
-0.889, -5.417e-6, 1.663e-2, 5.691e+2
-1.190, -1.596e-5, 4.704e-2, 5.722e+2
-1.491, -3.402e-5, 1.315e-1, 5.752e+2
-1.792, -5.282e-5, 1.587e-1, 5.782e+2
-1.907, -4.175e-5, 8.549e-2, 5.812e+2
-1.606, -1.417e-5, 4.815e-2, 5.842e+2
-1.305, -3.481e-6, 3.199e-2, 5.872e+2
-1.004, 3.347e-6, 1.790e-2, 5.902e+2
-0.703, 8.465e-6, 1.801e-2, 5.932e+2
-0.402, 1.159e-5, 1.514e-2, 5.963e+2
-0.101, 1.334e-5, 1.827e-2, 5.993e+2
-0.200, 6.888e-6, 1.652e-2, 6.023e+2
-0.501, 1.754e-6, 1.792e-2, 6.053e+2
-0.802, -3.294e-6, 1.739e-2, 6.083e+2
-1.103, -1.199e-5, 3.038e-2, 6.113e+2
-1.404, -2.785e-5, 9.414e-2, 6.143e+2
-1.705, -4.729e-5, 1.706e-1, 6.174e+2
-1.994, -6.675e-5, 1.479e-1, 6.204e+2
-1.693, -1.881e-5, 5.533e-2, 6.234e+2
-1.392, -6.001e-6, 3.783e-2, 6.264e+2
-1.091, 1.532e-6, 2.282e-2, 6.294e+2
-0.790, 7.120e-6, 1.838e-2, 6.324e+2
-0.489, 1.089e-5, 1.461e-2, 6.354e+2
-0.188, 1.294e-5, 1.875e-2, 6.384e+2
-0.113, 8.839e-6, 1.600e-2, 6.415e+2
-0.414, 3.213e-6, 1.693e-2, 6.445e+2
-0.715, -1.617e-6, 1.515e-2, 6.475e+2
-1.016, -8.742e-6, 2.764e-2, 6.505e+2
-1.317, -2.218e-5, 6.438e-2, 6.535e+2
-1.618, -4.149e-5, 1.594e-1, 6.565e+2
-1.919, -6.119e-5, 1.306e-1, 6.595e+2
-1.780, -2.519e-5, 6.102e-2, 6.625e+2
-1.479, -8.934e-6, 4.369e-2, 6.656e+2
-1.178, -4.722e-7, 2.442e-2, 6.686e+2
-0.877, 5.584e-6, 1.588e-2, 6.716e+2
-0.576, 9.936e-6, 1.887e-2, 6.746e+2
-0.275, 1.242e-5, 1.505e-2, 6.776e+2
-0.026, 1.187e-5, 1.792e-2, 6.806e+2
-0.327, 4.578e-6, 1.615e-2, 6.836e+2
-0.628, -9.322e-8, 1.687e-2, 6.866e+2
-0.929, -6.161e-6, 1.931e-2, 6.897e+2
-1.230, -1.714e-5, 4.299e-2, 6.927e+2
-1.531, -3.542e-5, 1.296e-1, 6.957e+2
-1.832, -5.446e-5, 1.360e-1, 6.987e+2
-1.867, -3.486e-5, 7.244e-2, 7.017e+2
-1.566, -1.226e-5, 4.262e-2, 7.047e+2
-1.265, -2.555e-6, 2.956e-2, 7.077e+2
-0.964, 3.910e-6, 1.846e-2, 7.108e+2
-0.663, 8.852e-6, 1.863e-2, 7.138e+2
-0.362, 1.180e-5, 1.502e-2, 7.168e+2
-0.061, 1.352e-5, 1.745e-2, 7.198e+2
-0.240, 6.095e-6, 1.605e-2, 7.228e+2
-0.541, 1.253e-6, 1.640e-2, 7.258e+2
-0.842, -4.068e-6, 1.722e-2, 7.288e+2
-1.143, -1.297e-5, 3.313e-2, 7.318e+2
-1.444, -2.931e-5, 9.581e-2, 7.349e+2
-1.745, -4.872e-5, 1.551e-1, 7.379e+2
-1.954, -5.172e-5, 1.002e-1, 7.409e+2
-1.653, -1.642e-5, 4.864e-2, 7.439e+2
-1.352, -4.886e-6, 3.365e-2, 7.469e+2
-1.051, 2.197e-6, 1.802e-2, 7.499e+2
-0.750, 7.572e-6, 1.714e-2, 7.529e+2
-0.449, 1.115e-5, 1.605e-2, 7.559e+2
-0.148, 1.311e-5, 1.767e-2, 7.590e+2
-0.153, 7.861e-6, 1.510e-2, 7.620e+2
-0.454, 2.565e-6, 1.713e-2, 7.650e+2
-0.755, -2.239e-6, 1.680e-2, 7.680e+2
-1.056, -9.664e-6, 2.435e-2, 7.710e+2
-1.357, -2.357e-5, 6.817e-2, 7.740e+2
-1.658, -4.297e-5, 1.506e-1, 7.770e+2
-1.959, -6.397e-5, 1.439e-1, 7.800e+2
-1.740, -2.187e-5, 5.504e-2, 7.831e+2
-1.439, -7.529e-6, 4.003e-2, 7.861e+2
-1.138, 3.042e-7, 2.430e-2, 7.891e+2
-0.837, 6.098e-6, 1.488e-2, 7.921e+2
-0.536, 1.026e-5, 1.806e-2, 7.951e+2
-0.235, 1.262e-5, 1.545e-2, 7.981e+2
-0.002, 1.379e-5, 1.809e-2, 8.005e+2