File: data/FL/FL/2023.4.27/9号b-cds.txt
Apr. 27, 2023   12:22:54
Cyclic Voltammetry
File: 9Data Source:  Experiment
Instrument Model:  CHI660E
Ref. Electrode: Ag/AgCl
Header:
Note:

Init E (V) = 0
High E (V) = 0
Low E (V) = -2
Init P/N = N
Scan Rate (V/s) = 0.1
Segment = 40
Sample Interval (V) = 0.001
Quiet Time (sec) = 5
Sensitivity (A/V) = 0.001

Segment 1:

Segment 2:

Segment 3:

Segment 4:

Segment 5:

Segment 6:

Segment 7:

Segment 8:

Segment 9:

Segment 10:

Segment 11:

Segment 12:

Segment 13:

Segment 14:

Segment 15:

Segment 16:

Segment 17:

Segment 18:

Segment 19:

Segment 20:

Segment 21:

Segment 22:

Segment 23:

Segment 24:

Segment 25:

Segment 26:

Segment 27:

Segment 28:

Segment 29:

Segment 30:

Segment 31:

Segment 32:

Segment 33:

Segment 34:

Segment 35:

Segment 36:

Segment 37:

Segment 38:

Segment 39:

Segment 40:

Potential/V, Current/A, Voltage/V, Time/s

0.000, -8.063e-7, 2.829e-2, 1.000e-2
-0.108, -2.760e-6, 2.688e-2, 1.090e+0
-0.216, -6.746e-6, 2.663e-2, 2.170e+0
-0.324, -1.690e-5, 2.566e-2, 3.250e+0
-0.432, -3.609e-5, 2.581e-2, 4.330e+0
-0.540, -7.477e-5, 2.558e-2, 5.410e+0
-0.648, -1.460e-4, 2.557e-2, 6.490e+0
-0.756, -2.657e-4, 3.133e-2, 7.570e+0
-0.864, -3.783e-4, 1.551e-1, 8.650e+0
-0.972, -4.075e-4, 3.732e-1, 9.730e+0
-1.080, -4.511e-4, 3.659e-1, 1.081e+1
-1.188, -4.681e-4, 3.821e-1, 1.189e+1
-1.296, -4.598e-4, 3.328e-1, 1.297e+1
-1.404, -4.361e-4, 2.595e-1, 1.405e+1
-1.512, -4.075e-4, 1.571e-1, 1.513e+1
-1.620, -3.897e-4, 1.110e-1, 1.621e+1
-1.728, -3.990e-4, 9.720e-2, 1.729e+1
-1.836, -4.473e-4, 1.172e-1, 1.837e+1
-1.944, -4.787e-4, 2.739e-1, 1.945e+1
-1.948, -3.762e-4, 3.068e-1, 2.053e+1
-1.840, -2.906e-4, 1.734e-1, 2.161e+1
-1.732, -2.539e-4, 1.157e-1, 2.269e+1
-1.624, -2.309e-4, 9.458e-2, 2.377e+1
-1.516, -2.135e-4, 8.400e-2, 2.485e+1
-1.408, -1.972e-4, 7.988e-2, 2.593e+1
-1.300, -1.791e-4, 7.258e-2, 2.701e+1
-1.192, -1.580e-4, 6.741e-2, 2.809e+1
-1.084, -1.343e-4, 5.742e-2, 2.917e+1
-0.976, -1.097e-4, 5.555e-2, 3.025e+1
-0.868, -8.438e-5, 4.645e-2, 3.133e+1
-0.760, -5.991e-5, 2.664e-2, 3.241e+1
-0.652, -3.785e-5, 2.514e-2, 3.349e+1
-0.544, -2.257e-5, 2.472e-2, 3.457e+1
-0.436, -1.321e-5, 2.418e-2, 3.565e+1
-0.328, -7.456e-6, 2.255e-2, 3.673e+1
-0.220, -3.776e-6, 2.261e-2, 3.781e+1
-0.112, -1.372e-6, 2.304e-2, 3.889e+1
-0.004, 4.082e-7, 2.233e-2, 3.997e+1
-0.104, -2.628e-6, 2.165e-2, 4.105e+1
-0.212, -5.772e-6, 2.210e-2, 4.213e+1
-0.320, -1.136e-5, 2.315e-2, 4.321e+1
-0.428, -2.172e-5, 2.349e-2, 4.429e+1
-0.536, -4.165e-5, 2.364e-2, 4.537e+1
-0.644, -8.174e-5, 2.337e-2, 4.645e+1
-0.752, -1.430e-4, 2.438e-2, 4.753e+1
-0.860, -1.882e-4, 5.918e-2, 4.861e+1
-0.968, -2.126e-4, 9.618e-2, 4.969e+1
-1.076, -2.386e-4, 9.602e-2, 5.077e+1
-1.184, -2.645e-4, 1.138e-1, 5.185e+1
-1.292, -2.806e-4, 1.429e-1, 5.293e+1
-1.400, -2.863e-4, 1.291e-1, 5.401e+1
-1.508, -2.838e-4, 1.071e-1, 5.509e+1
-1.616, -2.865e-4, 8.918e-2, 5.617e+1
-1.724, -3.038e-4, 8.700e-2, 5.725e+1
-1.832, -3.481e-4, 1.057e-1, 5.833e+1
-1.940, -3.865e-4, 1.876e-1, 5.941e+1
-1.952, -3.142e-4, 1.891e-1, 6.049e+1
-1.844, -2.373e-4, 1.138e-1, 6.157e+1
-1.736, -2.067e-4, 8.046e-2, 6.265e+1
-1.628, -1.893e-4, 7.120e-2, 6.373e+1
-1.520, -1.761e-4, 5.994e-2, 6.481e+1
-1.412, -1.630e-4, 6.388e-2, 6.589e+1
-1.304, -1.477e-4, 5.599e-2, 6.697e+1
-1.196, -1.295e-4, 4.877e-2, 6.805e+1
-1.088, -1.092e-4, 4.494e-2, 6.913e+1
-0.980, -8.778e-5, 4.469e-2, 7.021e+1
-0.872, -6.607e-5, 3.643e-2, 7.129e+1
-0.764, -4.565e-5, 2.248e-2, 7.237e+1
-0.656, -2.831e-5, 2.193e-2, 7.345e+1
-0.548, -1.661e-5, 2.148e-2, 7.453e+1
-0.440, -9.608e-6, 2.257e-2, 7.561e+1
-0.332, -5.436e-6, 2.223e-2, 7.669e+1
-0.224, -2.669e-6, 2.238e-2, 7.777e+1
-0.116, -8.776e-7, 2.524e-2, 7.885e+1
-0.008, 5.798e-7, 2.189e-2, 7.993e+1
-0.100, -1.983e-6, 2.251e-2, 8.101e+1
-0.208, -4.647e-6, 2.262e-2, 8.209e+1
-0.316, -9.140e-6, 2.235e-2, 8.317e+1
-0.424, -1.726e-5, 2.246e-2, 8.425e+1
-0.532, -3.307e-5, 2.431e-2, 8.533e+1
-0.640, -6.567e-5, 2.430e-2, 8.641e+1
-0.748, -1.201e-4, 2.512e-2, 8.749e+1
-0.856, -1.735e-4, 4.361e-2, 8.857e+1
-0.964, -2.107e-4, 6.535e-2, 8.965e+1
-1.072, -2.451e-4, 7.118e-2, 9.073e+1
-1.180, -2.779e-4, 8.820e-2, 9.181e+1
-1.288, -2.990e-4, 9.193e-2, 9.289e+1
-1.396, -3.081e-4, 9.543e-2, 9.397e+1
-1.504, -3.075e-4, 8.600e-2, 9.505e+1
-1.612, -3.135e-4, 8.128e-2, 9.613e+1
-1.720, -3.248e-4, 8.339e-2, 9.721e+1
-1.828, -3.582e-4, 1.013e-1, 9.829e+1
-1.936, -3.993e-4, 1.641e-1, 9.937e+1
-1.956, -3.349e-4, 1.584e-1, 1.005e+2
-1.848, -2.511e-4, 9.965e-2, 1.015e+2
-1.740, -2.170e-4, 6.780e-2, 1.026e+2
-1.632, -1.972e-4, 5.537e-2, 1.037e+2
-1.524, -1.818e-4, 5.444e-2, 1.048e+2
-1.416, -1.665e-4, 4.718e-2, 1.059e+2
-1.308, -1.493e-4, 4.562e-2, 1.069e+2
-1.200, -1.297e-4, 4.304e-2, 1.080e+2
-1.092, -1.081e-4, 3.950e-2, 1.091e+2
-0.984, -8.566e-5, 3.711e-2, 1.102e+2
-0.876, -6.340e-5, 3.254e-2, 1.113e+2
-0.768, -4.299e-5, 2.403e-2, 1.123e+2
-0.660, -2.632e-5, 2.398e-2, 1.134e+2
-0.552, -1.514e-5, 2.401e-2, 1.145e+2
-0.444, -8.626e-6, 2.423e-2, 1.156e+2
-0.336, -4.791e-6, 2.330e-2, 1.167e+2
-0.228, -2.305e-6, 2.395e-2, 1.177e+2
-0.120, -6.088e-7, 2.403e-2, 1.188e+2
-0.012, 6.894e-7, 2.375e-2, 1.199e+2
-0.096, -1.543e-6, 2.375e-2, 1.210e+2
-0.204, -3.895e-6, 2.361e-2, 1.221e+2
-0.312, -7.573e-6, 2.301e-2, 1.231e+2
-0.420, -1.417e-5, 2.331e-2, 1.242e+2
-0.528, -2.680e-5, 2.375e-2, 1.253e+2
-0.636, -5.289e-5, 2.474e-2, 1.264e+2
-0.744, -9.836e-5, 2.366e-2, 1.275e+2
-0.852, -1.498e-4, 3.523e-2, 1.285e+2
-0.960, -1.904e-4, 5.204e-2, 1.296e+2
-1.068, -2.280e-4, 5.890e-2, 1.307e+2
-1.176, -2.630e-4, 6.750e-2, 1.318e+2
-1.284, -2.865e-4, 6.936e-2, 1.329e+2
-1.392, -2.983e-4, 7.888e-2, 1.339e+2
-1.500, -2.999e-4, 7.170e-2, 1.350e+2
-1.608, -3.107e-4, 6.914e-2, 1.361e+2
-1.716, -3.236e-4, 7.530e-2, 1.372e+2
-1.824, -3.531e-4, 1.035e-1, 1.383e+2
-1.932, -3.927e-4, 1.582e-1, 1.393e+2
-1.960, -3.388e-4, 1.574e-1, 1.404e+2
-1.852, -2.487e-4, 9.598e-2, 1.415e+2
-1.744, -2.133e-4, 6.500e-2, 1.426e+2
-1.636, -1.934e-4, 5.382e-2, 1.437e+2
-1.528, -1.781e-4, 4.670e-2, 1.447e+2
-1.420, -1.626e-4, 4.254e-2, 1.458e+2
-1.312, -1.451e-4, 3.871e-2, 1.469e+2
-1.204, -1.252e-4, 3.529e-2, 1.480e+2
-1.096, -1.037e-4, 3.413e-2, 1.490e+2
-0.988, -8.126e-5, 3.603e-2, 1.501e+2
-0.880, -5.930e-5, 2.865e-2, 1.512e+2
-0.772, -3.966e-5, 2.252e-2, 1.523e+2
-0.664, -2.395e-5, 2.133e-2, 1.534e+2
-0.556, -1.356e-5, 2.184e-2, 1.544e+2
-0.448, -7.566e-6, 2.188e-2, 1.555e+2
-0.340, -4.219e-6, 2.209e-2, 1.566e+2
-0.232, -1.904e-6, 2.107e-2, 1.577e+2
-0.124, -3.805e-7, 2.092e-2, 1.588e+2
-0.016, 7.681e-7, 1.968e-2, 1.598e+2
-0.092, -1.212e-6, 2.004e-2, 1.609e+2
-0.200, -3.312e-6, 2.176e-2, 1.620e+2
-0.308, -6.565e-6, 1.999e-2, 1.631e+2
-0.416, -1.220e-5, 2.197e-2, 1.642e+2
-0.524, -2.300e-5, 2.004e-2, 1.652e+2
-0.632, -4.528e-5, 1.947e-2, 1.663e+2
-0.740, -8.575e-5, 2.126e-2, 1.674e+2
-0.848, -1.366e-4, 2.724e-2, 1.685e+2
-0.956, -1.804e-4, 4.434e-2, 1.696e+2
-1.064, -2.219e-4, 4.857e-2, 1.706e+2
-1.172, -2.600e-4, 5.263e-2, 1.717e+2
-1.280, -2.859e-4, 6.014e-2, 1.728e+2
-1.388, -2.993e-4, 6.079e-2, 1.739e+2
-1.496, -3.014e-4, 6.046e-2, 1.750e+2
-1.604, -3.142e-4, 6.121e-2, 1.760e+2
-1.712, -3.284e-4, 7.328e-2, 1.771e+2
-1.820, -3.538e-4, 9.490e-2, 1.782e+2
-1.928, -3.918e-4, 1.488e-1, 1.793e+2
-1.964, -3.482e-4, 1.592e-1, 1.804e+2
-1.856, -2.552e-4, 8.760e-2, 1.814e+2
-1.748, -2.189e-4, 5.588e-2, 1.825e+2
-1.640, -2.002e-4, 4.907e-2, 1.836e+2
-1.532, -1.840e-4, 4.159e-2, 1.847e+2
-1.424, -1.676e-4, 3.501e-2, 1.857e+2
-1.316, -1.491e-4, 3.578e-2, 1.868e+2
-1.208, -1.283e-4, 3.196e-2, 1.879e+2
-1.100, -1.058e-4, 3.120e-2, 1.890e+2
-0.992, -8.256e-5, 3.022e-2, 1.901e+2
-0.884, -5.986e-5, 2.839e-2, 1.911e+2
-0.776, -3.962e-5, 2.348e-2, 1.922e+2
-0.668, -2.376e-5, 2.243e-2, 1.933e+2
-0.560, -1.325e-5, 2.250e-2, 1.944e+2
-0.452, -7.256e-6, 2.346e-2, 1.955e+2
-0.344, -3.849e-6, 2.227e-2, 1.965e+2
-0.236, -1.732e-6, 2.270e-2, 1.976e+2
-0.128, -2.009e-7, 2.281e-2, 1.987e+2
-0.020, 8.518e-7, 2.207e-2, 1.998e+2
-0.088, -8.992e-7, 2.283e-2, 2.009e+2
-0.196, -2.821e-6, 2.210e-2, 2.019e+2
-0.304, -5.777e-6, 2.115e-2, 2.030e+2
-0.412, -1.083e-5, 2.142e-2, 2.041e+2
-0.520, -2.044e-5, 2.067e-2, 2.052e+2
-0.628, -4.023e-5, 2.105e-2, 2.063e+2
-0.736, -7.735e-5, 2.041e-2, 2.073e+2
-0.844, -1.279e-4, 2.663e-2, 2.084e+2
-0.952, -1.749e-4, 4.177e-2, 2.095e+2
-1.060, -2.212e-4, 4.266e-2, 2.106e+2
-1.168, -2.637e-4, 4.978e-2, 2.117e+2
-1.276, -2.932e-4, 5.216e-2, 2.127e+2
-1.384, -3.085e-4, 5.194e-2, 2.138e+2
-1.492, -3.115e-4, 5.746e-2, 2.149e+2
-1.600, -3.280e-4, 5.646e-2, 2.160e+2
-1.708, -3.438e-4, 7.219e-2, 2.170e+2
-1.816, -3.639e-4, 9.176e-2, 2.181e+2
-1.924, -4.031e-4, 1.482e-1, 2.192e+2
-1.968, -3.722e-4, 1.539e-1, 2.203e+2
-1.860, -2.614e-4, 9.573e-2, 2.214e+2
-1.752, -2.188e-4, 6.365e-2, 2.224e+2
-1.644, -1.965e-4, 4.635e-2, 2.235e+2
-1.536, -1.797e-4, 4.285e-2, 2.246e+2
-1.428, -1.628e-4, 3.547e-2, 2.257e+2
-1.320, -1.441e-4, 3.142e-2, 2.268e+2
-1.212, -1.232e-4, 2.980e-2, 2.278e+2
-1.104, -1.008e-4, 2.882e-2, 2.289e+2
-0.996, -7.779e-5, 2.790e-2, 2.300e+2
-0.888, -5.574e-5, 2.402e-2, 2.311e+2
-0.780, -3.635e-5, 2.181e-2, 2.322e+2
-0.672, -2.151e-5, 1.966e-2, 2.332e+2
-0.564, -1.180e-5, 2.086e-2, 2.343e+2
-0.456, -6.292e-6, 2.033e-2, 2.354e+2
-0.348, -3.283e-6, 1.968e-2, 2.365e+2
-0.240, -1.395e-6, 2.129e-2, 2.376e+2
-0.132, -3.539e-8, 2.091e-2, 2.386e+2
-0.024, 9.164e-7, 2.120e-2, 2.397e+2
-0.084, -6.119e-7, 2.019e-2, 2.408e+2
-0.192, -2.341e-6, 2.049e-2, 2.419e+2
-0.300, -4.882e-6, 2.069e-2, 2.430e+2
-0.408, -9.164e-6, 2.090e-2, 2.440e+2
-0.516, -1.724e-5, 2.075e-2, 2.451e+2
-0.624, -3.408e-5, 1.984e-2, 2.462e+2
-0.732, -6.645e-5, 2.134e-2, 2.473e+2
-0.840, -1.137e-4, 2.663e-2, 2.484e+2
-0.948, -1.608e-4, 3.828e-2, 2.494e+2
-1.056, -2.091e-4, 3.946e-2, 2.505e+2
-1.164, -2.544e-4, 4.944e-2, 2.516e+2
-1.272, -2.867e-4, 4.990e-2, 2.527e+2
-1.380, -3.038e-4, 5.404e-2, 2.537e+2
-1.488, -3.081e-4, 5.199e-2, 2.548e+2
-1.596, -3.240e-4, 5.781e-2, 2.559e+2
-1.704, -3.409e-4, 6.772e-2, 2.570e+2
-1.812, -3.570e-4, 9.825e-2, 2.581e+2
-1.920, -3.945e-4, 1.476e-1, 2.592e+2
-1.972, -3.753e-4, 1.617e-1, 2.602e+2
-1.864, -2.600e-4, 8.709e-2, 2.613e+2
-1.756, -2.169e-4, 5.000e-2, 2.624e+2
-1.648, -1.962e-4, 4.494e-2, 2.635e+2
-1.540, -1.788e-4, 3.344e-2, 2.646e+2
-1.432, -1.614e-4, 3.107e-2, 2.656e+2
-1.324, -1.422e-4, 2.759e-2, 2.667e+2
-1.216, -1.209e-4, 2.674e-2, 2.678e+2
-1.108, -9.811e-5, 2.598e-2, 2.689e+2
-1.000, -7.508e-5, 2.661e-2, 2.700e+2
-0.892, -5.320e-5, 2.390e-2, 2.710e+2
-0.784, -3.439e-5, 2.006e-2, 2.721e+2
-0.676, -2.013e-5, 1.937e-2, 2.732e+2
-0.568, -1.084e-5, 1.992e-2, 2.743e+2
-0.460, -5.681e-6, 2.083e-2, 2.754e+2
-0.352, -2.845e-6, 2.060e-2, 2.764e+2
-0.244, -1.094e-6, 2.124e-2, 2.775e+2
-0.136, 1.326e-7, 2.065e-2, 2.786e+2
-0.028, 1.009e-6, 2.166e-2, 2.797e+2
-0.080, -3.658e-7, 2.115e-2, 2.808e+2
-0.188, -1.968e-6, 2.265e-2, 2.819e+2
-0.275, -3.684e-6, 1.883e-2, 2.827e+2