File: data/FL/FL/2023.4.27/9号b-cds（2）.txt
Apr. 27, 2023   12:37:07
Cyclic Voltammetry
File: 9Data Source:  Experiment
Instrument Model:  CHI660E
Ref. Electrode: Ag/AgCl
Header:
Note:

Init E (V) = 0
High E (V) = 0
Low E (V) = -2
Init P/N = N
Scan Rate (V/s) = 0.1
Segment = 40
Sample Interval (V) = 0.001
Quiet Time (sec) = 5
Sensitivity (A/V) = 0.001

Segment 1:

Segment 2:

Segment 3:

Segment 4:

Segment 5:

Segment 6:

Segment 7:

Segment 8:

Segment 9:

Segment 10:

Segment 11:

Segment 12:

Segment 13:

Segment 14:

Segment 15:

Segment 16:

Segment 17:

Segment 18:

Segment 19:

Segment 20:

Segment 21:

Segment 22:

Segment 23:

Segment 24:

Segment 25:

Segment 26:

Segment 27:

Segment 28:

Segment 29:

Segment 30:

Segment 31:

Segment 32:

Segment 33:

Segment 34:

Segment 35:

Segment 36:

Segment 37:

Segment 38:

Segment 39:

Segment 40:

Potential/V, Current/A, Voltage/V, Time/s

0.000, -7.380e-7, 2.893e-2, 1.000e-2
-0.304, -9.984e-6, 1.886e-2, 3.050e+0
-0.608, -5.832e-5, 1.716e-2, 6.090e+0
-0.912, -2.295e-4, 3.750e-2, 9.130e+0
-1.216, -3.790e-4, 4.664e-2, 1.217e+1
-1.520, -3.838e-4, 5.158e-2, 1.521e+1
-1.824, -4.098e-4, 1.104e-1, 1.825e+1
-1.872, -2.895e-4, 9.390e-2, 2.129e+1
-1.568, -2.006e-4, 3.865e-2, 2.433e+1
-1.264, -1.400e-4, 2.971e-2, 2.737e+1
-0.960, -7.002e-5, 2.640e-2, 3.041e+1
-0.656, -1.832e-5, 2.021e-2, 3.345e+1
-0.352, -2.573e-6, 2.020e-2, 3.649e+1
-0.048, 1.106e-6, 2.095e-2, 3.953e+1
-0.256, -2.837e-6, 2.004e-2, 4.257e+1
-0.560, -1.858e-5, 2.000e-2, 4.561e+1
-0.864, -1.071e-4, 2.449e-2, 4.865e+1
-1.168, -2.437e-4, 3.505e-2, 5.169e+1
-1.472, -3.014e-4, 4.456e-2, 5.473e+1
-1.776, -3.446e-4, 8.368e-2, 5.777e+1
-1.920, -2.974e-4, 1.085e-1, 6.081e+1
-1.616, -1.829e-4, 3.582e-2, 6.385e+1
-1.312, -1.322e-4, 2.675e-2, 6.689e+1
-1.008, -6.980e-5, 2.319e-2, 6.993e+1
-0.704, -1.964e-5, 1.773e-2, 7.297e+1
-0.400, -2.811e-6, 1.862e-2, 7.601e+1
-0.096, 9.127e-7, 1.985e-2, 7.905e+1
-0.208, -1.610e-6, 2.046e-2, 8.209e+1
-0.512, -1.205e-5, 2.102e-2, 8.513e+1
-0.816, -8.092e-5, 2.294e-2, 8.817e+1
-1.120, -2.231e-4, 3.336e-2, 9.121e+1
-1.424, -3.091e-4, 4.323e-2, 9.425e+1
-1.728, -3.442e-4, 6.828e-2, 9.729e+1
-1.968, -3.557e-4, 1.436e-1, 1.003e+2
-1.664, -1.926e-4, 3.784e-2, 1.034e+2
-1.360, -1.405e-4, 2.400e-2, 1.064e+2
-1.056, -7.805e-5, 2.277e-2, 1.095e+2
-0.752, -2.414e-5, 2.002e-2, 1.125e+2
-0.448, -3.619e-6, 2.151e-2, 1.155e+2
-0.144, 6.149e-7, 2.064e-2, 1.186e+2
-0.160, -7.897e-7, 2.087e-2, 1.216e+2
-0.464, -8.174e-6, 1.876e-2, 1.247e+2
-0.768, -5.712e-5, 1.831e-2, 1.277e+2
-1.072, -1.904e-4, 2.906e-2, 1.307e+2
-1.376, -3.004e-4, 3.524e-2, 1.338e+2
-1.680, -3.387e-4, 6.105e-2, 1.368e+2
-1.984, -4.118e-4, 1.954e-1, 1.399e+2
-1.712, -2.004e-4, 4.136e-2, 1.429e+2
-1.408, -1.475e-4, 2.789e-2, 1.459e+2
-1.104, -8.608e-5, 2.533e-2, 1.490e+2
-0.800, -2.917e-5, 2.094e-2, 1.520e+2
-0.496, -4.582e-6, 1.874e-2, 1.550e+2
-0.192, 3.602e-7, 1.923e-2, 1.581e+2
-0.112, -1.824e-7, 1.811e-2, 1.611e+2
-0.416, -5.725e-6, 1.738e-2, 1.642e+2
-0.720, -3.969e-5, 1.667e-2, 1.672e+2
-1.024, -1.600e-4, 2.882e-2, 1.702e+2
-1.328, -2.906e-4, 3.494e-2, 1.733e+2
-1.632, -3.307e-4, 5.182e-2, 1.763e+2
-1.936, -3.848e-4, 1.685e-1, 1.794e+2
-1.760, -2.119e-4, 5.162e-2, 1.824e+2
-1.456, -1.542e-4, 2.924e-2, 1.854e+2
-1.152, -9.386e-5, 2.138e-2, 1.885e+2
-0.848, -3.471e-5, 1.887e-2, 1.915e+2
-0.544, -5.965e-6, 1.641e-2, 1.945e+2
-0.240, -4.627e-9, 1.739e-2, 1.976e+2
-0.064, 3.676e-7, 1.682e-2, 2.006e+2
-0.368, -4.042e-6, 1.767e-2, 2.037e+2
-0.672, -2.723e-5, 1.947e-2, 2.067e+2
-0.976, -1.304e-4, 2.571e-2, 2.097e+2
-1.280, -2.738e-4, 3.404e-2, 2.128e+2
-1.584, -3.164e-4, 4.666e-2, 2.158e+2
-1.888, -3.645e-4, 1.441e-1, 2.188e+2
-1.808, -2.255e-4, 6.543e-2, 2.219e+2
-1.504, -1.610e-4, 2.679e-2, 2.249e+2
-1.200, -1.021e-4, 2.120e-2, 2.280e+2
-0.896, -4.108e-5, 1.883e-2, 2.310e+2
-0.592, -7.877e-6, 1.722e-2, 2.340e+2
-0.288, -4.174e-7, 1.839e-2, 2.371e+2
-0.016, 1.036e-6, 1.804e-2, 2.401e+2
-0.320, -2.744e-6, 2.055e-2, 2.432e+2
-0.624, -1.873e-5, 1.933e-2, 2.462e+2
-0.928, -1.038e-4, 2.764e-2, 2.492e+2
-1.232, -2.525e-4, 2.879e-2, 2.523e+2
-1.536, -3.075e-4, 3.945e-2, 2.553e+2
-1.840, -3.506e-4, 1.136e-1, 2.584e+2
-1.856, -2.437e-4, 6.929e-2, 2.614e+2
-1.552, -1.678e-4, 2.847e-2, 2.644e+2
-1.248, -1.101e-4, 2.272e-2, 2.675e+2
-0.944, -4.814e-5, 2.068e-2, 2.705e+2
-0.640, -1.026e-5, 2.018e-2, 2.736e+2
-0.336, -8.487e-7, 1.926e-2, 2.766e+2
-0.032, 1.469e-6, 1.977e-2, 2.797e+2
-0.272, -1.797e-6, 1.885e-2, 2.827e+2
-0.576, -1.286e-5, 1.768e-2, 2.857e+2
-0.880, -8.109e-5, 2.276e-2, 2.888e+2
-1.184, -2.271e-4, 2.452e-2, 2.918e+2
-1.488, -3.042e-4, 3.794e-2, 2.949e+2
-1.792, -3.405e-4, 9.253e-2, 2.979e+2
-1.904, -2.702e-4, 9.686e-2, 3.010e+2
-1.600, -1.775e-4, 3.328e-2, 3.040e+2
-1.296, -1.209e-4, 2.409e-2, 3.070e+2
-0.992, -5.818e-5, 2.402e-2, 3.101e+2
-0.688, -1.455e-5, 1.940e-2, 3.131e+2
-0.384, -1.683e-6, 2.040e-2, 3.162e+2
-0.080, 1.161e-6, 2.018e-2, 3.192e+2
-0.224, -1.330e-6, 1.886e-2, 3.223e+2
-0.528, -9.895e-6, 2.062e-2, 3.253e+2
-0.832, -6.699e-5, 2.157e-2, 3.283e+2
-1.136, -2.067e-4, 2.863e-2, 3.314e+2
-1.440, -3.029e-4, 3.574e-2, 3.344e+2
-1.744, -3.387e-4, 8.269e-2, 3.375e+2
-1.952, -3.174e-4, 1.470e-1, 3.405e+2
-1.648, -1.845e-4, 3.611e-2, 3.436e+2
-1.344, -1.291e-4, 2.388e-2, 3.466e+2
-1.040, -6.650e-5, 2.291e-2, 3.496e+2
-0.736, -1.846e-5, 1.981e-2, 3.527e+2
-0.432, -2.331e-6, 1.830e-2, 3.557e+2
-0.128, 9.108e-7, 2.112e-2, 3.588e+2
-0.176, -6.076e-7, 1.879e-2, 3.618e+2
-0.480, -6.909e-6, 2.006e-2, 3.649e+2
-0.784, -4.901e-5, 1.680e-2, 3.679e+2
-1.088, -1.758e-4, 2.413e-2, 3.709e+2
-1.392, -2.929e-4, 3.153e-2, 3.740e+2
-1.696, -3.302e-4, 6.415e-2, 3.770e+2
-2.000, -3.947e-4, 2.316e-1, 3.801e+2
-1.696, -1.899e-4, 4.046e-2, 3.831e+2
-1.392, -1.349e-4, 2.524e-2, 3.862e+2
-1.088, -7.359e-5, 2.191e-2, 3.892e+2
-0.784, -2.265e-5, 1.802e-2, 3.922e+2
-0.480, -3.172e-6, 1.608e-2, 3.953e+2
-0.176, 6.531e-7, 1.665e-2, 3.983e+2
-0.128, -8.030e-8, 1.636e-2, 4.014e+2
-0.432, -4.995e-6, 1.617e-2, 4.044e+2
-0.736, -3.474e-5, 1.737e-2, 4.075e+2
-1.040, -1.468e-4, 2.543e-2, 4.105e+2
-1.344, -2.815e-4, 3.238e-2, 4.135e+2
-1.648, -3.224e-4, 5.634e-2, 4.166e+2
-1.952, -3.704e-4, 2.083e-1, 4.196e+2
-1.744, -2.119e-4, 4.625e-2, 4.227e+2
-1.440, -1.544e-4, 2.216e-2, 4.257e+2
-1.136, -9.001e-5, 1.799e-2, 4.288e+2
-0.832, -3.103e-5, 1.712e-2, 4.318e+2
-0.528, -4.971e-6, 1.777e-2, 4.348e+2
-0.224, 2.181e-7, 1.862e-2, 4.379e+2
-0.080, 3.282e-7, 1.836e-2, 4.409e+2
-0.384, -3.893e-6, 1.929e-2, 4.440e+2
-0.688, -2.654e-5, 1.952e-2, 4.470e+2
-0.992, -1.293e-4, 2.370e-2, 4.501e+2
-1.296, -2.842e-4, 2.723e-2, 4.531e+2
-1.600, -3.294e-4, 4.580e-2, 4.561e+2
-1.904, -3.708e-4, 1.773e-1, 4.592e+2
-1.792, -2.239e-4, 5.747e-2, 4.622e+2
-1.488, -1.602e-4, 2.601e-2, 4.653e+2
-1.184, -9.725e-5, 2.063e-2, 4.683e+2
-0.880, -3.645e-5, 2.103e-2, 4.714e+2
-0.576, -6.388e-6, 1.948e-2, 4.744e+2
-0.272, -8.092e-8, 1.898e-2, 4.774e+2
-0.032, 8.942e-7, 1.655e-2, 4.805e+2
-0.336, -2.662e-6, 1.546e-2, 4.835e+2
-0.640, -1.795e-5, 1.608e-2, 4.866e+2
-0.944, -1.000e-4, 2.266e-2, 4.896e+2
-1.248, -2.548e-4, 2.965e-2, 4.927e+2
-1.552, -3.137e-4, 4.017e-2, 4.957e+2
-1.856, -3.530e-4, 1.434e-1, 4.987e+2
-1.840, -2.348e-4, 7.000e-2, 5.018e+2
-1.536, -1.639e-4, 2.908e-2, 5.048e+2
-1.232, -1.034e-4, 2.098e-2, 5.079e+2
-0.928, -4.205e-5, 1.717e-2, 5.109e+2
-0.624, -8.225e-6, 1.504e-2, 5.140e+2
-0.320, -4.267e-7, 1.564e-2, 5.170e+2
-0.016, 1.541e-6, 1.617e-2, 5.200e+2
-0.288, -1.771e-6, 1.639e-2, 5.231e+2
-0.592, -1.229e-5, 1.665e-2, 5.261e+2
-0.896, -7.695e-5, 1.951e-2, 5.292e+2
-1.200, -2.267e-4, 2.413e-2, 5.322e+2
-1.504, -3.088e-4, 3.357e-2, 5.353e+2
-1.808, -3.414e-4, 1.207e-1, 5.383e+2
-1.888, -2.557e-4, 9.887e-2, 5.413e+2
-1.584, -1.714e-4, 2.936e-2, 5.444e+2
-1.280, -1.121e-4, 2.197e-2, 5.474e+2
-0.976, -4.952e-5, 2.025e-2, 5.505e+2
-0.672, -1.088e-5, 1.839e-2, 5.535e+2
-0.368, -9.053e-7, 1.837e-2, 5.566e+2
-0.064, 1.321e-6, 1.732e-2, 5.596e+2
-0.240, -1.120e-6, 1.717e-2, 5.626e+2
-0.544, -8.609e-6, 1.608e-2, 5.657e+2
-0.848, -5.935e-5, 1.807e-2, 5.687e+2
-1.152, -1.981e-4, 2.357e-2, 5.718e+2
-1.456, -3.048e-4, 3.257e-2, 5.748e+2
-1.760, -3.334e-4, 9.322e-2, 5.779e+2
-1.936, -2.885e-4, 1.293e-1, 5.809e+2
-1.632, -1.802e-4, 3.093e-2, 5.839e+2
-1.328, -1.214e-4, 2.227e-2, 5.870e+2
-1.024, -5.783e-5, 1.960e-2, 5.900e+2
-0.720, -1.427e-5, 1.881e-2, 5.931e+2
-0.416, -1.497e-6, 1.685e-2, 5.961e+2
-0.112, 1.130e-6, 1.641e-2, 5.992e+2
-0.192, -5.270e-7, 1.707e-2, 6.022e+2
-0.496, -6.172e-6, 1.637e-2, 6.052e+2
-0.800, -4.454e-5, 1.877e-2, 6.083e+2
-1.104, -1.692e-4, 2.615e-2, 6.113e+2
-1.408, -2.982e-4, 3.251e-2, 6.144e+2
-1.712, -3.291e-4, 7.791e-2, 6.174e+2
-1.984, -3.452e-4, 2.154e-1, 6.205e+2
-1.680, -1.885e-4, 3.625e-2, 6.235e+2
-1.376, -1.300e-4, 2.019e-2, 6.266e+2
-1.072, -6.650e-5, 1.740e-2, 6.296e+2
-0.768, -1.847e-5, 1.572e-2, 6.326e+2
-0.464, -2.229e-6, 1.524e-2, 6.357e+2
-0.160, 8.850e-7, 1.675e-2, 6.387e+2
-0.144, -2.431e-8, 1.648e-2, 6.418e+2
-0.448, -4.468e-6, 1.799e-2, 6.448e+2
-0.752, -3.216e-5, 1.847e-2, 6.479e+2
-1.056, -1.414e-4, 2.443e-2, 6.509e+2
-1.360, -2.862e-4, 2.883e-2, 6.539e+2
-1.664, -3.245e-4, 5.900e-2, 6.570e+2
-1.968, -3.667e-4, 2.462e-1, 6.600e+2
-1.728, -1.981e-4, 4.241e-2, 6.631e+2
-1.424, -1.390e-4, 2.467e-2, 6.661e+2
-1.120, -7.569e-5, 2.227e-2, 6.692e+2
-0.816, -2.347e-5, 1.684e-2, 6.722e+2
-0.512, -3.230e-6, 1.600e-2, 6.752e+2
-0.208, 6.143e-7, 1.596e-2, 6.783e+2
-0.096, 3.916e-7, 1.474e-2, 6.813e+2
-0.400, -3.283e-6, 1.598e-2, 6.844e+2
-0.704, -2.296e-5, 1.643e-2, 6.874e+2
-1.008, -1.154e-4, 2.297e-2, 6.905e+2
-1.312, -2.690e-4, 2.941e-2, 6.935e+2
-1.616, -3.173e-4, 5.070e-2, 6.965e+2
-1.920, -3.541e-4, 1.973e-1, 6.996e+2
-1.776, -2.094e-4, 5.187e-2, 7.026e+2
-1.472, -1.479e-4, 2.212e-2, 7.057e+2
-1.168, -8.515e-5, 1.824e-2, 7.087e+2
-0.864, -2.916e-5, 1.609e-2, 7.118e+2
-0.560, -4.545e-6, 1.568e-2, 7.148e+2
-0.256, 2.968e-7, 1.595e-2, 7.178e+2
-0.048, 8.081e-7, 1.616e-2, 7.209e+2
-0.352, -2.345e-6, 1.678e-2, 7.239e+2
-0.656, -1.631e-5, 1.651e-2, 7.270e+2
-0.960, -9.234e-5, 2.447e-2, 7.300e+2
-1.264, -2.474e-4, 2.809e-2, 7.331e+2
-1.568, -3.111e-4, 4.186e-2, 7.361e+2
-1.872, -3.450e-4, 1.722e-1, 7.391e+2
-1.824, -2.230e-4, 6.953e-2, 7.422e+2
-1.520, -1.566e-4, 2.882e-2, 7.452e+2
-1.216, -9.474e-5, 2.203e-2, 7.483e+2
-0.912, -3.570e-5, 1.994e-2, 7.513e+2
-0.608, -6.297e-6, 1.811e-2, 7.544e+2
-0.304, -5.446e-8, 1.669e-2, 7.574e+2
-0.000, 1.557e-6, 1.585e-2, 7.604e+2
-0.304, -1.625e-6, 1.509e-2, 7.635e+2
-0.608, -1.157e-5, 1.524e-2, 7.665e+2
-0.912, -7.264e-5, 2.053e-2, 7.696e+2
-1.216, -2.224e-4, 2.497e-2, 7.726e+2
-1.520, -3.082e-4, 3.471e-2, 7.757e+2
-1.824, -3.356e-4, 1.322e-1, 7.787e+2
-1.872, -2.411e-4, 8.531e-2, 7.817e+2
-1.568, -1.654e-4, 2.970e-2, 7.848e+2
-1.264, -1.044e-4, 2.320e-2, 7.878e+2
-0.960, -4.307e-5, 2.055e-2, 7.909e+2
-0.656, -8.620e-6, 1.807e-2, 7.939e+2
-0.352, -4.722e-7, 1.876e-2, 7.970e+2
-0.048, 1.487e-6, 1.837e-2, 8.000e+2
-0.002, 1.679e-6, 1.912e-2, 8.005e+2