File: data/FL/FL/2023.4.27/9号b-cds 虾.txt
Apr. 27, 2023   12:52:39
Cyclic Voltammetry
File: 9Data Source:  Experiment
Instrument Model:  CHI660E
Ref. Electrode: Ag/AgCl
Header:
Note:

Init E (V) = 0
High E (V) = 0
Low E (V) = -2
Init P/N = N
Scan Rate (V/s) = 0.1
Segment = 40
Sample Interval (V) = 0.001
Quiet Time (sec) = 5
Sensitivity (A/V) = 0.001

Segment 1:
Ep = -1.961V
ip = -7.420e-6A
Ah = -3.013e-6C

Segment 2:

Segment 3:
Ep = -1.587V
ip = -1.396e-6A
Ah = -6.643e-7C

Segment 4:

Segment 5:
Ep = -1.609V
ip = -2.443e-6A
Ah = -1.830e-6C

Segment 6:

Segment 7:
Ep = -1.619V
ip = -3.528e-6A
Ah = -2.943e-6C

Segment 8:

Segment 9:

Segment 10:

Segment 11:

Segment 12:

Segment 13:

Segment 14:

Segment 15:

Segment 16:

Segment 17:

Segment 18:

Segment 19:

Segment 20:

Segment 21:

Segment 22:

Segment 23:

Segment 24:

Segment 25:

Segment 26:

Segment 27:

Segment 28:

Segment 29:

Segment 30:

Segment 31:

Segment 32:

Segment 33:

Segment 34:

Segment 35:

Segment 36:

Segment 37:

Segment 38:

Segment 39:

Segment 40:

Potential/V, Current/A, Voltage/V, Time/s

0.000, 9.566e-8, 2.369e-2, 1.000e-2
-0.304, -2.020e-6, 2.366e-2, 3.050e+0
-0.608, -1.184e-5, 2.161e-2, 6.090e+0
-0.912, -6.799e-5, 2.598e-2, 9.130e+0
-1.216, -2.339e-4, 2.798e-2, 1.217e+1
-1.520, -3.792e-4, 4.228e-2, 1.521e+1
-1.824, -2.713e-4, 1.946e-1, 1.825e+1
-1.872, -2.122e-4, 1.404e-1, 2.129e+1
-1.568, -1.676e-4, 3.461e-2, 2.433e+1
-1.264, -1.274e-4, 2.429e-2, 2.737e+1
-0.960, -6.861e-5, 2.208e-2, 3.041e+1
-0.656, -1.920e-5, 2.154e-2, 3.345e+1
-0.352, -2.964e-6, 2.115e-2, 3.649e+1
-0.048, 9.059e-7, 1.981e-2, 3.953e+1
-0.256, -2.286e-6, 2.172e-2, 4.257e+1
-0.560, -1.201e-5, 2.158e-2, 4.561e+1
-0.864, -5.713e-5, 2.209e-2, 4.865e+1
-1.168, -1.565e-4, 2.397e-2, 5.169e+1
-1.472, -2.306e-4, 2.906e-2, 5.473e+1
-1.776, -1.994e-4, 1.660e-1, 5.777e+1
-1.920, -1.678e-4, 1.354e-1, 6.081e+1
-1.616, -1.327e-4, 3.744e-2, 6.385e+1
-1.312, -1.050e-4, 2.265e-2, 6.689e+1
-1.008, -6.284e-5, 1.929e-2, 6.993e+1
-0.704, -2.100e-5, 1.990e-2, 7.297e+1
-0.400, -3.707e-6, 2.119e-2, 7.601e+1
-0.096, 5.866e-7, 2.067e-2, 7.905e+1
-0.208, -1.495e-6, 1.947e-2, 8.209e+1
-0.512, -8.626e-6, 1.887e-2, 8.513e+1
-0.816, -4.103e-5, 1.974e-2, 8.817e+1
-1.120, -1.201e-4, 2.065e-2, 9.121e+1
-1.424, -2.022e-4, 2.557e-2, 9.425e+1
-1.728, -2.032e-4, 1.375e-1, 9.729e+1
-1.968, -1.828e-4, 1.598e-1, 1.003e+2
-1.664, -1.345e-4, 4.458e-2, 1.034e+2
-1.360, -1.066e-4, 2.215e-2, 1.064e+2
-1.056, -6.804e-5, 2.069e-2, 1.095e+2
-0.752, -2.588e-5, 2.122e-2, 1.125e+2
-0.448, -5.227e-6, 1.907e-2, 1.155e+2
-0.144, 5.813e-8, 1.926e-2, 1.186e+2
-0.160, -9.902e-7, 1.965e-2, 1.216e+2
-0.464, -6.986e-6, 1.962e-2, 1.247e+2
-0.768, -3.285e-5, 1.999e-2, 1.277e+2
-1.072, -1.009e-4, 2.099e-2, 1.307e+2
-1.376, -1.850e-4, 2.485e-2, 1.338e+2
-1.680, -2.113e-4, 1.003e-1, 1.368e+2
-1.984, -2.027e-4, 2.009e-1, 1.399e+2
-1.712, -1.340e-4, 4.572e-2, 1.429e+2
-1.408, -1.043e-4, 1.992e-2, 1.459e+2
-1.104, -7.022e-5, 1.962e-2, 1.490e+2
-0.800, -3.016e-5, 1.918e-2, 1.520e+2
-0.496, -6.813e-6, 1.920e-2, 1.550e+2
-0.192, -4.341e-7, 1.961e-2, 1.581e+2
-0.112, -3.664e-7, 1.947e-2, 1.611e+2
-0.416, -5.579e-6, 2.084e-2, 1.642e+2
-0.720, -2.575e-5, 2.011e-2, 1.672e+2
-1.024, -8.323e-5, 2.022e-2, 1.702e+2
-1.328, -1.651e-4, 2.212e-2, 1.733e+2
-1.632, -2.168e-4, 5.643e-2, 1.763e+2
-1.936, -2.059e-4, 1.733e-1, 1.794e+2
-1.760, -1.423e-4, 5.215e-2, 1.824e+2
-1.456, -1.087e-4, 2.075e-2, 1.854e+2
-1.152, -7.635e-5, 1.899e-2, 1.885e+2
-0.848, -3.631e-5, 2.290e-2, 1.915e+2
-0.544, -9.385e-6, 2.055e-2, 1.945e+2
-0.240, -1.247e-6, 1.911e-2, 1.976e+2
-0.064, 1.092e-7, 2.084e-2, 2.006e+2
-0.368, -4.719e-6, 2.097e-2, 2.037e+2
-0.672, -2.084e-5, 2.029e-2, 2.067e+2
-0.976, -6.982e-5, 2.258e-2, 2.097e+2
-1.280, -1.476e-4, 2.109e-2, 2.128e+2
-1.584, -2.078e-4, 3.408e-2, 2.158e+2
-1.888, -2.040e-4, 1.337e-1, 2.188e+2
-1.808, -1.484e-4, 5.435e-2, 2.219e+2
-1.504, -1.100e-4, 2.202e-2, 2.249e+2
-1.200, -7.929e-5, 1.993e-2, 2.280e+2
-0.896, -4.131e-5, 1.734e-2, 2.310e+2
-0.592, -1.223e-5, 1.898e-2, 2.340e+2
-0.288, -2.115e-6, 1.944e-2, 2.371e+2
-0.016, 6.807e-7, 1.984e-2, 2.401e+2
-0.320, -3.890e-6, 2.190e-2, 2.432e+2
-0.624, -1.628e-5, 2.076e-2, 2.462e+2
-0.928, -5.680e-5, 2.059e-2, 2.492e+2
-1.232, -1.265e-4, 2.119e-2, 2.523e+2
-1.536, -1.879e-4, 2.703e-2, 2.553e+2
-1.840, -2.006e-4, 1.059e-1, 2.584e+2
-1.856, -1.551e-4, 6.116e-2, 2.614e+2
-1.552, -1.118e-4, 2.258e-2, 2.644e+2
-1.248, -8.168e-5, 1.719e-2, 2.675e+2
-0.944, -4.604e-5, 1.803e-2, 2.705e+2
-0.640, -1.558e-5, 1.888e-2, 2.736e+2
-0.336, -3.126e-6, 1.840e-2, 2.766e+2
-0.032, 8.155e-7, 2.018e-2, 2.797e+2
-0.272, -3.072e-6, 2.167e-2, 2.827e+2
-0.576, -1.278e-5, 2.164e-2, 2.857e+2
-0.880, -4.596e-5, 2.015e-2, 2.888e+2
-1.184, -1.073e-4, 1.953e-2, 2.918e+2
-1.488, -1.706e-4, 2.456e-2, 2.949e+2
-1.792, -2.001e-4, 8.520e-2, 2.979e+2
-1.904, -1.648e-4, 8.978e-2, 3.010e+2
-1.600, -1.159e-4, 2.488e-2, 3.040e+2
-1.296, -8.391e-5, 1.843e-2, 3.070e+2
-0.992, -5.028e-5, 1.863e-2, 3.101e+2
-0.688, -1.908e-5, 1.780e-2, 3.131e+2
-0.384, -4.320e-6, 1.682e-2, 3.162e+2
-0.080, 3.036e-7, 1.926e-2, 3.192e+2
-0.224, -2.435e-6, 1.890e-2, 3.223e+2
-0.528, -1.025e-5, 1.826e-2, 3.253e+2
-0.832, -3.683e-5, 2.039e-2, 3.283e+2
-1.136, -8.926e-5, 2.063e-2, 3.314e+2
-1.440, -1.523e-4, 2.288e-2, 3.344e+2
-1.744, -1.966e-4, 7.009e-2, 3.375e+2
-1.952, -1.763e-4, 1.436e-1, 3.405e+2
-1.648, -1.192e-4, 2.878e-2, 3.436e+2
-1.344, -8.506e-5, 2.070e-2, 3.466e+2
-1.040, -5.339e-5, 2.049e-2, 3.496e+2
-0.736, -2.250e-5, 1.664e-2, 3.527e+2
-0.432, -5.657e-6, 1.812e-2, 3.557e+2
-0.128, -2.310e-7, 1.807e-2, 3.588e+2
-0.176, -1.722e-6, 1.954e-2, 3.618e+2
-0.480, -8.207e-6, 2.303e-2, 3.649e+2
-0.784, -2.929e-5, 1.872e-2, 3.679e+2
-1.088, -7.318e-5, 2.222e-2, 3.709e+2
-1.392, -1.322e-4, 2.215e-2, 3.740e+2
-1.696, -1.879e-4, 5.257e-2, 3.770e+2
-2.000, -1.949e-4, 2.845e-1, 3.801e+2
-1.696, -1.220e-4, 3.042e-2, 3.831e+2
-1.392, -8.590e-5, 1.949e-2, 3.862e+2
-1.088, -5.579e-5, 1.721e-2, 3.892e+2
-0.784, -2.563e-5, 1.786e-2, 3.922e+2
-0.480, -7.110e-6, 1.866e-2, 3.953e+2
-0.176, -8.635e-7, 1.803e-2, 3.983e+2
-0.128, -1.047e-6, 1.997e-2, 4.014e+2
-0.432, -6.597e-6, 1.928e-2, 4.044e+2
-0.736, -2.322e-5, 2.120e-2, 4.075e+2
-1.040, -5.952e-5, 2.117e-2, 4.105e+2
-1.344, -1.123e-4, 2.248e-2, 4.135e+2
-1.648, -1.729e-4, 3.981e-2, 4.166e+2
-1.952, -1.874e-4, 2.200e-1, 4.196e+2
-1.744, -1.246e-4, 3.760e-2, 4.227e+2
-1.440, -8.645e-5, 2.007e-2, 4.257e+2
-1.136, -5.769e-5, 1.985e-2, 4.288e+2
-0.832, -2.868e-5, 1.939e-2, 4.318e+2
-0.528, -8.890e-6, 1.951e-2, 4.348e+2
-0.224, -1.617e-6, 1.847e-2, 4.379e+2
-0.080, -4.913e-7, 1.982e-2, 4.409e+2
-0.384, -5.448e-6, 1.800e-2, 4.440e+2
-0.688, -1.835e-5, 1.890e-2, 4.470e+2
-0.992, -4.851e-5, 1.814e-2, 4.501e+2
-1.296, -9.478e-5, 1.802e-2, 4.531e+2
-1.600, -1.528e-4, 2.598e-2, 4.561e+2
-1.904, -1.803e-4, 1.594e-1, 4.592e+2
-1.792, -1.281e-4, 4.741e-2, 4.622e+2
-1.488, -8.736e-5, 2.250e-2, 4.653e+2
-1.184, -5.922e-5, 1.798e-2, 4.683e+2
-0.880, -3.143e-5, 1.888e-2, 4.714e+2
-0.576, -1.070e-5, 1.716e-2, 4.744e+2
-0.272, -2.298e-6, 1.812e-2, 4.774e+2
-0.032, 2.027e-7, 1.767e-2, 4.805e+2
-0.336, -4.397e-6, 1.763e-2, 4.835e+2
-0.640, -1.441e-5, 1.925e-2, 4.866e+2
-0.944, -3.941e-5, 1.815e-2, 4.896e+2
-1.248, -7.950e-5, 2.057e-2, 4.927e+2
-1.552, -1.309e-4, 2.635e-2, 4.957e+2
-1.856, -1.711e-4, 1.179e-1, 4.987e+2
-1.840, -1.318e-4, 6.114e-2, 5.018e+2
-1.536, -8.857e-5, 2.348e-2, 5.048e+2
-1.232, -6.037e-5, 1.970e-2, 5.079e+2
-0.928, -3.390e-5, 1.721e-2, 5.109e+2
-0.624, -1.273e-5, 1.779e-2, 5.140e+2
-0.320, -3.055e-6, 1.669e-2, 5.170e+2
-0.016, 8.124e-7, 1.833e-2, 5.200e+2
-0.288, -3.509e-6, 1.717e-2, 5.231e+2
-0.592, -1.137e-5, 1.831e-2, 5.261e+2
-0.896, -3.216e-5, 1.824e-2, 5.292e+2
-1.200, -6.643e-5, 1.887e-2, 5.322e+2
-1.504, -1.122e-4, 2.244e-2, 5.353e+2
-1.808, -1.598e-4, 8.444e-2, 5.383e+2
-1.888, -1.363e-4, 7.903e-2, 5.413e+2
-1.584, -9.053e-5, 2.587e-2, 5.444e+2
-1.280, -6.119e-5, 2.118e-2, 5.474e+2
-0.976, -3.599e-5, 2.015e-2, 5.505e+2
-0.672, -1.480e-5, 2.075e-2, 5.535e+2
-0.368, -3.903e-6, 1.997e-2, 5.566e+2
-0.064, 3.657e-7, 2.039e-2, 5.596e+2
-0.240, -2.683e-6, 1.698e-2, 5.626e+2
-0.544, -9.148e-6, 1.888e-2, 5.657e+2
-0.848, -2.637e-5, 1.748e-2, 5.687e+2
-1.152, -5.562e-5, 1.678e-2, 5.718e+2
-1.456, -9.686e-5, 2.107e-2, 5.748e+2
-1.760, -1.472e-4, 6.240e-2, 5.779e+2
-1.936, -1.423e-4, 1.289e-1, 5.809e+2
-1.632, -9.282e-5, 2.663e-2, 5.839e+2
-1.328, -6.206e-5, 2.199e-2, 5.870e+2
-1.024, -3.786e-5, 2.337e-2, 5.900e+2
-0.720, -1.691e-5, 2.130e-2, 5.931e+2
-0.416, -4.817e-6, 1.975e-2, 5.961e+2
-0.112, -1.517e-7, 2.007e-2, 5.992e+2
-0.192, -1.999e-6, 2.100e-2, 6.022e+2
-0.496, -7.375e-6, 1.990e-2, 6.052e+2
-0.800, -2.169e-5, 2.019e-2, 6.083e+2
-1.104, -4.660e-5, 2.050e-2, 6.113e+2
-1.408, -8.329e-5, 2.170e-2, 6.144e+2
-1.712, -1.335e-4, 4.591e-2, 6.174e+2
-1.984, -1.515e-4, 2.550e-1, 6.205e+2
-1.680, -9.472e-5, 3.061e-2, 6.235e+2
-1.376, -6.268e-5, 2.102e-2, 6.266e+2
-1.072, -3.950e-5, 2.065e-2, 6.296e+2
-0.768, -1.892e-5, 2.129e-2, 6.326e+2
-0.464, -5.846e-6, 2.083e-2, 6.357e+2
-0.160, -6.802e-7, 1.875e-2, 6.387e+2
-0.144, -1.310e-6, 1.755e-2, 6.418e+2
-0.448, -6.049e-6, 1.890e-2, 6.448e+2
-0.752, -1.777e-5, 1.875e-2, 6.479e+2
-1.056, -3.917e-5, 1.761e-2, 6.509e+2
-1.360, -7.151e-5, 1.838e-2, 6.539e+2
-1.664, -1.194e-4, 3.276e-2, 6.570e+2
-1.968, -1.508e-4, 2.743e-1, 6.600e+2
-1.728, -9.664e-5, 3.232e-2, 6.631e+2
-1.424, -6.351e-5, 1.928e-2, 6.661e+2
-1.120, -4.100e-5, 1.904e-2, 6.692e+2
-0.816, -2.085e-5, 2.123e-2, 6.722e+2
-0.512, -7.002e-6, 2.112e-2, 6.752e+2
-0.208, -1.292e-6, 1.978e-2, 6.783e+2
-0.096, -7.060e-7, 2.115e-2, 6.813e+2
-0.400, -5.045e-6, 1.906e-2, 6.844e+2
-0.704, -1.459e-5, 1.578e-2, 6.874e+2
-1.008, -3.311e-5, 1.685e-2, 6.905e+2
-1.312, -6.147e-5, 1.901e-2, 6.935e+2
-1.616, -1.046e-4, 2.861e-2, 6.965e+2
-1.920, -1.406e-4, 1.843e-1, 6.996e+2
-1.776, -9.871e-5, 3.941e-2, 7.026e+2
-1.472, -6.441e-5, 2.321e-2, 7.057e+2
-1.168, -4.235e-5, 1.978e-2, 7.087e+2
-0.864, -2.284e-5, 2.004e-2, 7.118e+2
-0.560, -8.395e-6, 1.893e-2, 7.148e+2
-0.256, -1.922e-6, 1.657e-2, 7.178e+2
-0.048, -5.857e-9, 1.775e-2, 7.209e+2
-0.352, -4.139e-6, 1.842e-2, 7.239e+2
-0.656, -1.180e-5, 1.829e-2, 7.270e+2
-0.960, -2.800e-5, 2.051e-2, 7.300e+2
-1.264, -5.290e-5, 1.993e-2, 7.331e+2
-1.568, -8.982e-5, 2.793e-2, 7.361e+2
-1.872, -1.298e-4, 1.283e-1, 7.391e+2
-1.824, -1.012e-4, 4.760e-2, 7.422e+2
-1.520, -6.551e-5, 2.002e-2, 7.452e+2
-1.216, -4.348e-5, 1.800e-2, 7.483e+2
-0.912, -2.456e-5, 1.863e-2, 7.513e+2
-0.608, -9.800e-6, 1.688e-2, 7.544e+2
-0.304, -2.492e-6, 1.820e-2, 7.574e+2
-0.000, 8.764e-7, 1.920e-2, 7.604e+2
-0.304, -3.329e-6, 1.944e-2, 7.635e+2
-0.608, -9.691e-6, 2.248e-2, 7.665e+2
-0.912, -2.388e-5, 1.989e-2, 7.696e+2
-1.216, -4.563e-5, 1.924e-2, 7.726e+2
-1.520, -7.753e-5, 2.208e-2, 7.757e+2
-1.824, -1.192e-4, 8.504e-2, 7.787e+2
-1.872, -1.044e-4, 6.590e-2, 7.817e+2
-1.568, -6.726e-5, 1.839e-2, 7.848e+2
-1.264, -4.453e-5, 1.725e-2, 7.878e+2
-0.960, -2.611e-5, 2.036e-2, 7.909e+2
-0.656, -1.123e-5, 2.102e-2, 7.939e+2
-0.352, -3.179e-6, 2.092e-2, 7.970e+2
-0.048, 5.257e-7, 1.846e-2, 8.000e+2
-0.002, 9.256e-7, 1.970e-2, 8.005e+2